File: XRD/H1120.asc
15 	40
15.26 	42
15.52 	40
15.78 	36
16.04 	42
16.3 	57
16.56 	62
16.82 	56
17.08 	55
17.34 	40
17.6 	29
17.86 	23
18.12 	24
18.38 	28
18.64 	24
18.9 	20
19.16 	30
19.42 	21
19.68 	35
19.94 	32
20.2 	22
20.46 	22
20.72 	27
20.98 	22
21.24 	24
21.5 	29
21.76 	26
22.02 	27
22.28 	30
22.54 	23
22.8 	24
23.06 	21
23.32 	26
23.58 	35
23.84 	26
24.1 	16
24.36 	34
24.62 	22
24.88 	24
25.14 	17
25.4 	21
25.66 	28
25.92 	23
26.18 	21
26.44 	28
26.7 	20
26.96 	19
27.22 	21
27.48 	27
27.74 	15
28 	14
28.26 	14
28.52 	20
28.78 	25
29.04 	12
29.3 	22
29.56 	19
29.82 	24
30.08 	23
30.34 	15
30.6 	10
30.86 	12
31.12 	16
31.38 	14
31.64 	10
31.9 	13
32.16 	18
32.42 	14
32.68 	13
32.94 	14
33.2 	11
33.46 	12
33.72 	13
33.98 	15
34.24 	10
34.5 	16
34.76 	16
35.02 	11
35.28 	34
35.54 	27
35.8 	14
36.06 	16
36.32 	16
36.58 	12
36.84 	22
37.1 	17
37.36 	15
37.62 	23
37.88 	22
38.14 	37
38.4 	176
38.66 	160
38.92 	38
39.18 	24
39.44 	21
39.7 	16
39.96 	23
40.22 	55
40.48 	112
40.74 	28
41 	17
41.26 	15
41.52 	12
41.78 	17
42.04 	9
42.3 	8
42.56 	16
42.82 	6
43.08 	11
43.34 	13
43.6 	12
43.86 	10
44.12 	25
44.38 	21
44.64 	151
44.9 	91
45.16 	9
45.42 	13
45.68 	16
45.94 	9
46.2 	9
46.46 	10
46.72 	13
46.98 	11
47.24 	8
47.5 	12
47.76 	10
48.02 	19
48.28 	12
48.54 	5
48.8 	19
49.06 	14
49.32 	9
49.58 	10
49.84 	7
50.1 	9
50.36 	15
50.62 	10
50.88 	12
51.14 	2
51.4 	5
51.66 	6
51.92 	4
52.18 	9
52.44 	10
52.7 	13
52.96 	11
53.22 	17
53.48 	16
53.74 	6
54 	4
54.26 	8
54.52 	9
54.78 	8
55.04 	6
55.3 	1
55.56 	11
55.82 	8
56.08 	5
56.34 	4
56.6 	8
56.86 	8
57.12 	14
57.38 	7
57.64 	1
57.9 	5
58.16 	4
58.42 	2
58.68 	5
58.94 	8
59.2 	1
59.46 	7
59.72 	4
59.98 	4
60.24 	7
60.5 	8
60.76 	6
61.02 	8
61.28 	3
61.54 	4
61.8 	9
62.06 	4
62.32 	9
62.58 	4
62.84 	7
63.1 	10
63.36 	19
63.62 	12
63.88 	7
64.14 	8
64.4 	4
64.66 	13
64.92 	13
65.18 	53
65.44 	9
65.7 	8
65.96 	8
66.22 	2
66.48 	10
66.74 	4
67 	6
67.26 	6
67.52 	6
67.78 	12
68.04 	9
68.3 	7
68.56 	4
68.82 	7
69.08 	5
69.34 	5
69.6 	7
69.86 	4
70.12 	7
70.38 	5
70.64 	6
70.9 	14
71.16 	20
71.42 	10
71.68 	12
71.94 	5
72.2 	6
72.46 	4
72.72 	7
72.98 	9
73.24 	3
73.5 	10
73.76 	4
74.02 	8
74.28 	4
74.54 	10
74.8 	7
75.06 	11
75.32 	6
75.58 	8
75.84 	6
76.1 	8
76.36 	9
76.62 	12
76.88 	12
77.14 	7
77.4 	5
77.66 	4
77.92 	15
78.18 	72
78.43999 	39
78.7 	11
78.96 	4
79.22 	5
79.48 	7
79.74 	5
80 	6
80.26 	4
80.52 	6
80.78 	5
81.04 	2
81.3 	4
81.56 	5
81.82 	4
82.08 	6
82.34 	16
82.6 	14
82.86 	7
83.12 	8
83.38 	3
83.64 	5
83.9 	4
84.16 	7
84.42 	5
84.68 	6
84.93999 	4
85.2 	3
85.46 	4
85.72 	1
85.98 	1
86.24 	3
86.5 	5
86.76 	7
87.02 	6
87.28 	4
87.54 	6
87.8 	7
88.06 	5
88.32 	4
88.58 	5
88.84 	3
89.1 	2
89.36 	2
89.62 	6
89.88 	6
90 	4