File: XRD/H560.asc
15 	37
15.26 	38
15.52 	57
15.78 	39
16.04 	42
16.3 	39
16.56 	41
16.82 	40
17.08 	37
17.34 	31
17.6 	32
17.86 	28
18.12 	40
18.38 	32
18.64 	36
18.9 	24
19.16 	27
19.42 	23
19.68 	31
19.94 	28
20.2 	29
20.46 	25
20.72 	12
20.98 	33
21.24 	28
21.5 	23
21.76 	30
22.02 	32
22.28 	19
22.54 	25
22.8 	38
23.06 	36
23.32 	28
23.58 	12
23.84 	27
24.1 	31
24.36 	29
24.62 	32
24.88 	30
25.14 	21
25.4 	22
25.66 	17
25.92 	21
26.18 	19
26.44 	21
26.7 	25
26.96 	20
27.22 	28
27.48 	22
27.74 	20
28 	17
28.26 	21
28.52 	16
28.78 	18
29.04 	20
29.3 	30
29.56 	23
29.82 	24
30.08 	28
30.34 	21
30.6 	23
30.86 	21
31.12 	20
31.38 	24
31.64 	21
31.9 	16
32.16 	14
32.42 	19
32.68 	24
32.94 	20
33.2 	16
33.46 	19
33.72 	20
33.98 	19
34.24 	18
34.5 	21
34.76 	24
35.02 	17
35.28 	74
35.54 	36
35.8 	22
36.06 	26
36.32 	32
36.58 	21
36.84 	21
37.1 	21
37.36 	23
37.62 	26
37.88 	32
38.14 	134
38.4 	628
38.66 	65
38.92 	37
39.18 	41
39.44 	43
39.7 	26
39.96 	55
40.22 	146
40.48 	180
40.74 	69
41 	28
41.26 	26
41.52 	21
41.78 	25
42.04 	14
42.3 	8
42.56 	26
42.82 	17
43.08 	20
43.34 	18
43.6 	12
43.86 	22
44.12 	29
44.38 	60
44.64 	125
44.9 	19
45.16 	22
45.42 	14
45.68 	21
45.94 	17
46.2 	15
46.46 	15
46.72 	15
46.98 	16
47.24 	13
47.5 	19
47.76 	15
48.02 	14
48.28 	12
48.54 	18
48.8 	12
49.06 	13
49.32 	10
49.58 	13
49.84 	13
50.1 	16
50.36 	19
50.62 	10
50.88 	9
51.14 	8
51.4 	12
51.66 	10
51.92 	26
52.18 	18
52.44 	13
52.7 	13
52.96 	18
53.22 	41
53.48 	24
53.74 	17
54 	21
54.26 	18
54.52 	14
54.78 	17
55.04 	11
55.3 	12
55.56 	19
55.82 	11
56.08 	12
56.34 	14
56.6 	13
56.86 	10
57.12 	19
57.38 	18
57.64 	10
57.9 	16
58.16 	7
58.42 	13
58.68 	8
58.94 	14
59.2 	5
59.46 	11
59.72 	16
59.98 	9
60.24 	14
60.5 	15
60.76 	16
61.02 	13
61.28 	15
61.54 	13
61.8 	8
62.06 	14
62.32 	14
62.58 	16
62.84 	16
63.1 	17
63.36 	45
63.62 	33
63.88 	17
64.14 	22
64.4 	23
64.66 	29
64.92 	171
65.18 	36
65.44 	10
65.7 	14
65.96 	7
66.22 	14
66.48 	13
66.74 	20
67 	12
67.26 	14
67.52 	9
67.78 	10
68.04 	11
68.3 	10
68.56 	10
68.82 	14
69.08 	8
69.34 	11
69.6 	17
69.86 	12
70.12 	15
70.38 	12
70.64 	16
70.9 	39
71.16 	28
71.42 	24
71.68 	8
71.94 	12
72.2 	13
72.46 	14
72.72 	14
72.98 	9
73.24 	13
73.5 	10
73.76 	13
74.02 	8
74.28 	15
74.54 	14
74.8 	16
75.06 	13
75.32 	8
75.58 	9
75.84 	16
76.1 	21
76.36 	15
76.62 	28
76.88 	28
77.14 	19
77.4 	22
77.66 	32
77.92 	78
78.18 	70
78.43999 	16
78.7 	5
78.96 	17
79.22 	7
79.48 	9
79.74 	7
80 	12
80.26 	11
80.52 	11
80.78 	14
81.04 	12
81.3 	12
81.56 	11
81.82 	15
82.08 	24
82.34 	20
82.6 	14
82.86 	18
83.12 	7
83.38 	11
83.64 	10
83.9 	6
84.16 	7
84.42 	8
84.68 	9
84.93999 	11
85.2 	10
85.46 	8
85.72 	5
85.98 	10
86.24 	6
86.5 	9
86.76 	11
87.02 	7
87.28 	11
87.54 	9
87.8 	9
88.06 	16
88.32 	13
88.58 	8
88.84 	12
89.1 	3
89.36 	11
89.62 	8
89.88 	11
90 	13