File: XRD/H710.asc
15 	32
15.26 	38
15.52 	47
15.78 	53
16.04 	49
16.3 	43
16.56 	42
16.82 	46
17.08 	25
17.34 	47
17.6 	31
17.86 	27
18.12 	20
18.38 	27
18.64 	19
18.9 	27
19.16 	16
19.42 	25
19.68 	29
19.94 	32
20.2 	28
20.46 	24
20.72 	24
20.98 	34
21.24 	29
21.5 	31
21.76 	31
22.02 	30
22.28 	19
22.54 	22
22.8 	21
23.06 	28
23.32 	20
23.58 	15
23.84 	21
24.1 	23
24.36 	23
24.62 	29
24.88 	29
25.14 	20
25.4 	19
25.66 	22
25.92 	23
26.18 	20
26.44 	20
26.7 	23
26.96 	25
27.22 	24
27.48 	17
27.74 	23
28 	19
28.26 	24
28.52 	18
28.78 	23
29.04 	12
29.3 	16
29.56 	19
29.82 	21
30.08 	23
30.34 	14
30.6 	11
30.86 	15
31.12 	20
31.38 	21
31.64 	16
31.9 	13
32.16 	23
32.42 	26
32.68 	24
32.94 	18
33.2 	21
33.46 	18
33.72 	21
33.98 	12
34.24 	17
34.5 	18
34.76 	24
35.02 	14
35.28 	30
35.54 	19
35.8 	23
36.06 	16
36.32 	18
36.58 	14
36.84 	14
37.1 	26
37.36 	23
37.62 	37
37.88 	28
38.14 	145
38.4 	766
38.66 	63
38.92 	30
39.18 	23
39.44 	25
39.7 	26
39.96 	42
40.22 	41
40.48 	118
40.74 	35
41 	27
41.26 	13
41.52 	18
41.78 	27
42.04 	19
42.3 	18
42.56 	25
42.82 	14
43.08 	26
43.34 	22
43.6 	17
43.86 	39
44.12 	46
44.38 	146
44.64 	686
44.9 	47
45.16 	23
45.42 	25
45.68 	19
45.94 	16
46.2 	19
46.46 	19
46.72 	15
46.98 	27
47.24 	21
47.5 	20
47.76 	18
48.02 	17
48.28 	23
48.54 	14
48.8 	15
49.06 	15
49.32 	15
49.58 	17
49.84 	22
50.1 	14
50.36 	17
50.62 	13
50.88 	16
51.14 	15
51.4 	21
51.66 	13
51.92 	11
52.18 	20
52.44 	13
52.7 	12
52.96 	12
53.22 	25
53.48 	29
53.74 	21
54 	12
54.26 	17
54.52 	7
54.78 	8
55.04 	11
55.3 	14
55.56 	6
55.82 	15
56.08 	9
56.34 	12
56.6 	9
56.86 	12
57.12 	12
57.38 	10
57.64 	9
57.9 	16
58.16 	13
58.42 	14
58.68 	9
58.94 	20
59.2 	13
59.46 	14
59.72 	13
59.98 	15
60.24 	9
60.5 	12
60.76 	14
61.02 	15
61.28 	14
61.54 	11
61.8 	6
62.06 	11
62.32 	14
62.58 	12
62.84 	14
63.1 	12
63.36 	14
63.62 	28
63.88 	10
64.14 	19
64.4 	22
64.66 	27
64.92 	234
65.18 	56
65.44 	21
65.7 	7
65.96 	8
66.22 	15
66.48 	15
66.74 	14
67 	13
67.26 	10
67.52 	24
67.78 	13
68.04 	15
68.3 	9
68.56 	6
68.82 	13
69.08 	14
69.34 	12
69.6 	11
69.86 	11
70.12 	8
70.38 	18
70.64 	18
70.9 	27
71.16 	32
71.42 	10
71.68 	20
71.94 	9
72.2 	3
72.46 	14
72.72 	12
72.98 	11
73.24 	16
73.5 	14
73.76 	17
74.02 	17
74.28 	12
74.54 	10
74.8 	17
75.06 	11
75.32 	14
75.58 	11
75.84 	8
76.1 	11
76.36 	16
76.62 	21
76.88 	23
77.14 	17
77.4 	21
77.66 	42
77.92 	206
78.18 	183
78.43999 	36
78.7 	13
78.96 	15
79.22 	13
79.48 	18
79.74 	14
80 	7
80.26 	10
80.52 	14
80.78 	17
81.04 	14
81.3 	11
81.56 	11
81.82 	15
82.08 	39
82.34 	44
82.6 	25
82.86 	13
83.12 	11
83.38 	13
83.64 	9
83.9 	12
84.16 	15
84.42 	12
84.68 	16
84.93999 	8
85.2 	11
85.46 	5
85.72 	11
85.98 	16
86.24 	13
86.5 	7
86.76 	9
87.02 	5
87.28 	9
87.54 	6
87.8 	10
88.06 	8
88.32 	12
88.58 	8
88.84 	9
89.1 	10
89.36 	14
89.62 	18
89.88 	12
90 	5