File: XRD/H900.asc
15 	53
15.26 	63
15.52 	68
15.78 	73
16.04 	67
16.3 	67
16.56 	71
16.82 	68
17.08 	64
17.34 	62
17.6 	44
17.86 	32
18.12 	28
18.38 	33
18.64 	27
18.9 	28
19.16 	36
19.42 	25
19.68 	27
19.94 	34
20.2 	44
20.46 	34
20.72 	42
20.98 	40
21.24 	24
21.5 	45
21.76 	39
22.02 	38
22.28 	30
22.54 	45
22.8 	39
23.06 	34
23.32 	43
23.58 	31
23.84 	36
24.1 	37
24.36 	42
24.62 	24
24.88 	21
25.14 	24
25.4 	22
25.66 	25
25.92 	25
26.18 	18
26.44 	30
26.7 	29
26.96 	25
27.22 	27
27.48 	16
27.74 	31
28 	20
28.26 	23
28.52 	23
28.78 	29
29.04 	24
29.3 	26
29.56 	18
29.82 	35
30.08 	20
30.34 	27
30.6 	31
30.86 	26
31.12 	28
31.38 	17
31.64 	26
31.9 	20
32.16 	25
32.42 	16
32.68 	23
32.94 	20
33.2 	22
33.46 	27
33.72 	21
33.98 	29
34.24 	20
34.5 	32
34.76 	38
35.02 	38
35.28 	34
35.54 	63
35.8 	34
36.06 	30
36.32 	21
36.58 	35
36.84 	20
37.1 	25
37.36 	21
37.62 	38
37.88 	29
38.14 	43
38.4 	404
38.66 	565
38.92 	58
39.18 	36
39.44 	45
39.7 	34
39.96 	52
40.22 	108
40.48 	217
40.74 	77
41 	50
41.26 	28
41.52 	22
41.78 	19
42.04 	27
42.3 	27
42.56 	20
42.82 	21
43.08 	27
43.34 	35
43.6 	22
43.86 	42
44.12 	28
44.38 	58
44.64 	331
44.9 	311
45.16 	38
45.42 	19
45.68 	18
45.94 	17
46.2 	19
46.46 	20
46.72 	23
46.98 	22
47.24 	18
47.5 	22
47.76 	23
48.02 	17
48.28 	13
48.54 	13
48.8 	30
49.06 	15
49.32 	14
49.58 	24
49.84 	24
50.1 	12
50.36 	24
50.62 	16
50.88 	22
51.14 	20
51.4 	19
51.66 	16
51.92 	15
52.18 	17
52.44 	18
52.7 	24
52.96 	21
53.22 	33
53.48 	43
53.74 	26
54 	22
54.26 	17
54.52 	28
54.78 	19
55.04 	21
55.3 	18
55.56 	13
55.82 	19
56.08 	15
56.34 	18
56.6 	19
56.86 	16
57.12 	21
57.38 	21
57.64 	17
57.9 	19
58.16 	22
58.42 	7
58.68 	25
58.94 	11
59.2 	16
59.46 	16
59.72 	23
59.98 	26
60.24 	17
60.5 	14
60.76 	22
61.02 	22
61.28 	20
61.54 	20
61.8 	19
62.06 	15
62.32 	16
62.58 	18
62.84 	16
63.1 	13
63.36 	24
63.62 	33
63.88 	33
64.14 	22
64.4 	31
64.66 	26
64.92 	44
65.18 	138
65.44 	22
65.7 	13
65.96 	31
66.22 	20
66.48 	16
66.74 	22
67 	13
67.26 	25
67.52 	17
67.78 	28
68.04 	16
68.3 	21
68.56 	8
68.82 	12
69.08 	13
69.34 	15
69.6 	15
69.86 	22
70.12 	16
70.38 	20
70.64 	26
70.9 	41
71.16 	42
71.42 	25
71.68 	22
71.94 	23
72.2 	18
72.46 	14
72.72 	20
72.98 	18
73.24 	19
73.5 	19
73.76 	22
74.02 	22
74.28 	18
74.54 	13
74.8 	23
75.06 	17
75.32 	24
75.58 	19
75.84 	16
76.1 	22
76.36 	19
76.62 	37
76.88 	46
77.14 	38
77.4 	32
77.66 	28
77.92 	52
78.18 	387
78.43999 	181
78.7 	34
78.96 	23
79.22 	34
79.48 	23
79.74 	20
80 	19
80.26 	24
80.52 	14
80.78 	22
81.04 	26
81.3 	16
81.56 	26
81.82 	20
82.08 	28
82.34 	119
82.6 	90
82.86 	30
83.12 	20
83.38 	16
83.64 	22
83.9 	22
84.16 	8
84.42 	21
84.68 	20
84.93999 	20
85.2 	15
85.46 	19
85.72 	24
85.98 	19
86.24 	18
86.5 	20
86.76 	17
87.02 	26
87.28 	27
87.54 	11
87.8 	20
88.06 	22
88.32 	16
88.58 	18
88.84 	21
89.1 	16
89.36 	18
89.62 	15
89.88 	12
90 	15