File: XRD/P-560.asc
15 	28
15.26 	45
15.52 	53
15.78 	45
16.04 	55
16.3 	49
16.56 	51
16.82 	67
17.08 	42
17.34 	48
17.6 	37
17.86 	35
18.12 	15
18.38 	32
18.64 	31
18.9 	20
19.16 	23
19.42 	25
19.68 	38
19.94 	32
20.2 	17
20.46 	23
20.72 	42
20.98 	42
21.24 	38
21.5 	30
21.76 	34
22.02 	39
22.28 	37
22.54 	41
22.8 	47
23.06 	39
23.32 	26
23.58 	33
23.84 	33
24.1 	30
24.36 	31
24.62 	46
24.88 	31
25.14 	36
25.4 	31
25.66 	31
25.92 	35
26.18 	33
26.44 	28
26.7 	33
26.96 	33
27.22 	29
27.48 	28
27.74 	36
28 	28
28.26 	17
28.52 	27
28.78 	24
29.04 	20
29.3 	33
29.56 	22
29.82 	21
30.08 	19
30.34 	19
30.6 	38
30.86 	27
31.12 	29
31.38 	36
31.64 	26
31.9 	27
32.16 	34
32.42 	24
32.68 	26
32.94 	30
33.2 	16
33.46 	29
33.72 	20
33.98 	24
34.24 	18
34.5 	30
34.76 	29
35.02 	35
35.28 	73
35.54 	65
35.8 	42
36.06 	27
36.32 	34
36.58 	24
36.84 	28
37.1 	24
37.36 	15
37.62 	30
37.88 	33
38.14 	72
38.4 	1086
38.66 	164
38.92 	55
39.18 	45
39.44 	40
39.7 	44
39.96 	90
40.22 	214
40.48 	379
40.74 	99
41 	67
41.26 	35
41.52 	41
41.78 	28
42.04 	31
42.3 	41
42.56 	24
42.82 	34
43.08 	20
43.34 	38
43.6 	31
43.86 	28
44.12 	38
44.38 	64
44.64 	979
44.9 	83
45.16 	33
45.42 	29
45.68 	20
45.94 	23
46.2 	26
46.46 	25
46.72 	27
46.98 	30
47.24 	32
47.5 	29
47.76 	25
48.02 	27
48.28 	28
48.54 	17
48.8 	26
49.06 	24
49.32 	23
49.58 	20
49.84 	23
50.1 	24
50.36 	19
50.62 	14
50.88 	20
51.14 	29
51.4 	22
51.66 	26
51.92 	19
52.18 	26
52.44 	23
52.7 	19
52.96 	36
53.22 	62
53.48 	30
53.74 	27
54 	16
54.26 	20
54.52 	13
54.78 	16
55.04 	14
55.3 	13
55.56 	14
55.82 	18
56.08 	19
56.34 	18
56.6 	16
56.86 	18
57.12 	20
57.38 	24
57.64 	11
57.9 	17
58.16 	21
58.42 	18
58.68 	19
58.94 	13
59.2 	12
59.46 	22
59.72 	20
59.98 	16
60.24 	18
60.5 	14
60.76 	23
61.02 	24
61.28 	14
61.54 	18
61.8 	7
62.06 	20
62.32 	14
62.58 	14
62.84 	17
63.1 	19
63.36 	37
63.62 	43
63.88 	23
64.14 	25
64.4 	16
64.66 	32
64.92 	206
65.18 	191
65.44 	28
65.7 	12
65.96 	15
66.22 	13
66.48 	17
66.74 	18
67 	12
67.26 	19
67.52 	18
67.78 	23
68.04 	17
68.3 	18
68.56 	20
68.82 	14
69.08 	23
69.34 	17
69.6 	26
69.86 	21
70.12 	19
70.38 	28
70.64 	17
70.9 	48
71.16 	59
71.42 	29
71.68 	24
71.94 	16
72.2 	24
72.46 	10
72.72 	23
72.98 	17
73.24 	14
73.5 	14
73.76 	16
74.02 	21
74.28 	25
74.54 	25
74.8 	18
75.06 	11
75.32 	18
75.58 	19
75.84 	19
76.1 	27
76.36 	28
76.62 	45
76.88 	45
77.14 	38
77.4 	30
77.66 	31
77.92 	106
78.18 	260
78.43999 	105
78.7 	24
78.96 	20
79.22 	19
79.48 	21
79.74 	14
80 	19
80.26 	20
80.52 	23
80.78 	14
81.04 	10
81.3 	19
81.56 	16
81.82 	21
82.08 	28
82.34 	75
82.6 	48
82.86 	21
83.12 	13
83.38 	13
83.64 	16
83.9 	13
84.16 	15
84.42 	17
84.68 	13
84.93999 	18
85.2 	13
85.46 	22
85.72 	18
85.98 	20
86.24 	15
86.5 	16
86.76 	18
87.02 	18
87.28 	15
87.54 	21
87.8 	24
88.06 	10
88.32 	22
88.58 	20
88.84 	15
89.1 	14
89.36 	12
89.62 	16
89.88 	15
90 	16