File: XRD/P1120.asc
15 	43
15.26 	61
15.52 	49
15.78 	53
16.04 	46
16.3 	49
16.56 	46
16.82 	37
17.08 	43
17.34 	49
17.6 	36
17.86 	31
18.12 	30
18.38 	34
18.64 	22
18.9 	32
19.16 	32
19.42 	28
19.68 	28
19.94 	28
20.2 	34
20.46 	38
20.72 	25
20.98 	36
21.24 	28
21.5 	26
21.76 	45
22.02 	28
22.28 	30
22.54 	32
22.8 	26
23.06 	29
23.32 	31
23.58 	33
23.84 	31
24.1 	34
24.36 	27
24.62 	28
24.88 	30
25.14 	35
25.4 	46
25.66 	25
25.92 	28
26.18 	26
26.44 	29
26.7 	40
26.96 	23
27.22 	27
27.48 	30
27.74 	28
28 	33
28.26 	32
28.52 	30
28.78 	28
29.04 	37
29.3 	39
29.56 	32
29.82 	20
30.08 	21
30.34 	36
30.6 	17
30.86 	30
31.12 	27
31.38 	30
31.64 	23
31.9 	27
32.16 	25
32.42 	30
32.68 	20
32.94 	35
33.2 	31
33.46 	30
33.72 	22
33.98 	32
34.24 	13
34.5 	29
34.76 	33
35.02 	42
35.28 	71
35.54 	67
35.8 	44
36.06 	29
36.32 	25
36.58 	24
36.84 	30
37.1 	29
37.36 	38
37.62 	42
37.88 	47
38.14 	121
38.4 	611
38.66 	350
38.92 	56
39.18 	60
39.44 	56
39.7 	57
39.96 	78
40.22 	149
40.48 	279
40.74 	123
41 	45
41.26 	41
41.52 	29
41.78 	40
42.04 	41
42.3 	26
42.56 	26
42.82 	35
43.08 	27
43.34 	33
43.6 	25
43.86 	35
44.12 	29
44.38 	64
44.64 	357
44.9 	68
45.16 	26
45.42 	29
45.68 	23
45.94 	22
46.2 	22
46.46 	14
46.72 	24
46.98 	21
47.24 	19
47.5 	25
47.76 	21
48.02 	15
48.28 	17
48.54 	19
48.8 	22
49.06 	26
49.32 	14
49.58 	22
49.84 	23
50.1 	20
50.36 	19
50.62 	25
50.88 	22
51.14 	27
51.4 	28
51.66 	13
51.92 	16
52.18 	15
52.44 	21
52.7 	19
52.96 	29
53.22 	49
53.48 	68
53.74 	32
54 	18
54.26 	20
54.52 	25
54.78 	17
55.04 	15
55.3 	17
55.56 	22
55.82 	16
56.08 	19
56.34 	17
56.6 	13
56.86 	18
57.12 	17
57.38 	23
57.64 	20
57.9 	14
58.16 	15
58.42 	21
58.68 	13
58.94 	20
59.2 	18
59.46 	15
59.72 	10
59.98 	17
60.24 	18
60.5 	22
60.76 	21
61.02 	15
61.28 	11
61.54 	17
61.8 	16
62.06 	22
62.32 	12
62.58 	18
62.84 	28
63.1 	24
63.36 	41
63.62 	78
63.88 	51
64.14 	42
64.4 	22
64.66 	30
64.92 	96
65.18 	90
65.44 	20
65.7 	23
65.96 	27
66.22 	13
66.48 	26
66.74 	21
67 	11
67.26 	13
67.52 	25
67.78 	23
68.04 	19
68.3 	19
68.56 	18
68.82 	16
69.08 	24
69.34 	25
69.6 	23
69.86 	24
70.12 	12
70.38 	16
70.64 	32
70.9 	56
71.16 	60
71.42 	28
71.68 	26
71.94 	20
72.2 	21
72.46 	16
72.72 	18
72.98 	18
73.24 	12
73.5 	13
73.76 	19
74.02 	25
74.28 	23
74.54 	16
74.8 	30
75.06 	34
75.32 	17
75.58 	18
75.84 	27
76.1 	22
76.36 	23
76.62 	46
76.88 	61
77.14 	45
77.4 	30
77.66 	36
77.92 	97
78.18 	206
78.43999 	84
78.7 	25
78.96 	24
79.22 	28
79.48 	20
79.74 	22
80 	19
80.26 	26
80.52 	19
80.78 	8
81.04 	14
81.3 	15
81.56 	31
81.82 	17
82.08 	33
82.34 	58
82.6 	45
82.86 	35
83.12 	25
83.38 	14
83.64 	14
83.9 	17
84.16 	19
84.42 	13
84.68 	13
84.93999 	17
85.2 	20
85.46 	12
85.72 	19
85.98 	18
86.24 	15
86.5 	14
86.76 	17
87.02 	20
87.28 	19
87.54 	10
87.8 	17
88.06 	8
88.32 	19
88.58 	17
88.84 	11
89.1 	10
89.36 	17
89.62 	9
89.88 	10
90 	13