File: XRD/P710.asc
15 	51
15.26 	46
15.52 	58
15.78 	56
16.04 	52
16.3 	55
16.56 	50
16.82 	50
17.08 	41
17.34 	52
17.6 	28
17.86 	32
18.12 	26
18.38 	32
18.64 	33
18.9 	29
19.16 	19
19.42 	22
19.68 	24
19.94 	26
20.2 	38
20.46 	37
20.72 	32
20.98 	49
21.24 	31
21.5 	34
21.76 	34
22.02 	42
22.28 	32
22.54 	33
22.8 	29
23.06 	35
23.32 	25
23.58 	42
23.84 	27
24.1 	33
24.36 	30
24.62 	31
24.88 	24
25.14 	29
25.4 	21
25.66 	34
25.92 	28
26.18 	21
26.44 	26
26.7 	30
26.96 	21
27.22 	24
27.48 	15
27.74 	19
28 	24
28.26 	19
28.52 	21
28.78 	20
29.04 	26
29.3 	23
29.56 	23
29.82 	23
30.08 	22
30.34 	27
30.6 	24
30.86 	18
31.12 	18
31.38 	15
31.64 	19
31.9 	35
32.16 	20
32.42 	16
32.68 	18
32.94 	17
33.2 	19
33.46 	16
33.72 	8
33.98 	20
34.24 	24
34.5 	20
34.76 	29
35.02 	24
35.28 	56
35.54 	43
35.8 	35
36.06 	11
36.32 	20
36.58 	16
36.84 	24
37.1 	27
37.36 	27
37.62 	27
37.88 	35
38.14 	113
38.4 	1229
38.66 	123
38.92 	41
39.18 	63
39.44 	50
39.7 	37
39.96 	55
40.22 	106
40.48 	183
40.74 	71
41 	31
41.26 	24
41.52 	20
41.78 	13
42.04 	24
42.3 	25
42.56 	19
42.82 	23
43.08 	14
43.34 	23
43.6 	20
43.86 	21
44.12 	34
44.38 	76
44.64 	516
44.9 	34
45.16 	16
45.42 	14
45.68 	20
45.94 	15
46.2 	22
46.46 	7
46.72 	20
46.98 	16
47.24 	22
47.5 	19
47.76 	20
48.02 	19
48.28 	9
48.54 	16
48.8 	13
49.06 	12
49.32 	17
49.58 	15
49.84 	13
50.1 	12
50.36 	9
50.62 	23
50.88 	11
51.14 	13
51.4 	14
51.66 	15
51.92 	20
52.18 	17
52.44 	15
52.7 	13
52.96 	22
53.22 	31
53.48 	36
53.74 	23
54 	14
54.26 	11
54.52 	10
54.78 	11
55.04 	5
55.3 	12
55.56 	13
55.82 	18
56.08 	15
56.34 	16
56.6 	14
56.86 	20
57.12 	18
57.38 	9
57.64 	14
57.9 	15
58.16 	13
58.42 	14
58.68 	7
58.94 	12
59.2 	9
59.46 	15
59.72 	10
59.98 	8
60.24 	13
60.5 	13
60.76 	12
61.02 	18
61.28 	6
61.54 	15
61.8 	9
62.06 	6
62.32 	17
62.58 	16
62.84 	12
63.1 	20
63.36 	28
63.62 	32
63.88 	27
64.14 	14
64.4 	15
64.66 	21
64.92 	188
65.18 	101
65.44 	17
65.7 	14
65.96 	10
66.22 	14
66.48 	11
66.74 	16
67 	12
67.26 	12
67.52 	11
67.78 	21
68.04 	12
68.3 	8
68.56 	12
68.82 	10
69.08 	8
69.34 	5
69.6 	12
69.86 	9
70.12 	23
70.38 	29
70.64 	17
70.9 	28
71.16 	32
71.42 	19
71.68 	17
71.94 	9
72.2 	11
72.46 	11
72.72 	14
72.98 	6
73.24 	14
73.5 	7
73.76 	10
74.02 	12
74.28 	13
74.54 	17
74.8 	11
75.06 	13
75.32 	15
75.58 	10
75.84 	17
76.1 	13
76.36 	20
76.62 	32
76.88 	29
77.14 	24
77.4 	20
77.66 	18
77.92 	53
78.18 	106
78.43999 	40
78.7 	18
78.96 	12
79.22 	16
79.48 	12
79.74 	11
80 	10
80.26 	15
80.52 	11
80.78 	9
81.04 	9
81.3 	11
81.56 	7
81.82 	12
82.08 	9
82.34 	60
82.6 	38
82.86 	16
83.12 	11
83.38 	11
83.64 	9
83.9 	6
84.16 	11
84.42 	10
84.68 	9
84.93999 	12
85.2 	13
85.46 	8
85.72 	11
85.98 	5
86.24 	11
86.5 	9
86.76 	12
87.02 	6
87.28 	10
87.54 	10
87.8 	9
88.06 	13
88.32 	8
88.58 	14
88.84 	3
89.1 	15
89.36 	10
89.62 	12
89.88 	10
90 	5